Time (s),Current (A)
0,0.0004790956
1.29,0.0004020161
2.43,0.0003873337
3.57,0.000375719
4.73,0.0003664236
5.89,0.000357733
7.04,0.0003519641
8.2,0.0003456678
9.35,0.000340195
10.5,0.0003349378
11.66,0.0003292058
12.8,0.0003248077
13.93,0.0003205116
15.08,0.0003166569
16.24,0.0003133935
17.4,0.0003098192
18.58,0.0003067174
19.73,0.0003039635
20.87,0.0003014605
22.02,0.000299191
23.17,0.000297069
24.32,0.000295142
25.48,0.0002937592
26.62,0.0002924545
27.78,0.000291303
28.93,0.0002906079
30.11,0.0002902624
31.24,0.0002900147
32.38,0.0002901134
33.53,0.0002902312
34.67,0.0002904418
35.81,0.0002907071
36.95,0.0002912796
38.1,0.0002915341
39.24,0.0002918624
40.38,0.0002920329
41.54,0.000292332
42.68,0.0002924381
43.82,0.0002925024
44.96,0.0002926714
46.11,0.0002926807
47.25,0.00029268
48.39,0.0002936419
49.55,0.0002938946
50.69,0.0002941679
51.83,0.0002940925
52.98,0.0002941055
54.11,0.0002940333
55.25,0.0002939592
56.4,0.0002936231
57.56,0.0002935308
58.7,0.0002932471
59.86,0.0002927936
61.0,0.0002923415
62.14,0.0002919358
63.28,0.0002914437
64.43,0.0002909136
65.57,0.0002904445
66.7,0.0002901059
67.85,0.0002897399
68.99,0.0002894739
70.14,0.0002893219
71.28,0.0002890261
72.43,0.0002891422
73.58,0.0002894222
74.72,0.0002896896
75.86,0.0002901441
77.01,0.0002907266
78.15,0.0002913856
79.3,0.0002918615
80.44,0.0002924217
81.59,0.0002929723
82.72,0.0002934593
83.87,0.0002938641
85.02,0.0002941961
86.16,0.0002945205
87.3,0.0002947066
88.44,0.000294816
89.58,0.00029496
90.73,0.00029504
91.86,0.0002950984
93.0,0.000295
94.14,0.0002948935
95.27,0.0002948755
96.42,0.0002930831
97.56,0.0002940329
98.72,0.0002981307
99.86,0.0002956556
101.02,0.0002955073
102.17,0.0002945525
103.3,0.0002943929
104.44,0.0002938228
105.63,0.0002936376
106.82,0.0002937825
107.98,0.0002935301
109.17,0.0002935917
110.31,0.0002935562
111.45,0.0002935887
112.59,0.0002936258
113.75,0.000293571
114.9,0.0002939588
116.05,0.0002942211
117.2,0.0002947042
118.35,0.0002947947
119.49,0.0002954614
120.63,0.0002958011
121.76,0.0002961225
122.91,0.0002961303
124.06,0.0002967623
125.2,0.0002971907
126.35,0.000297451
127.48,0.0002976216
128.63,0.0002975897
129.77,0.0002967333
130.92,0.0002976319
132.05,0.000297604
133.2,0.000297417
134.34,0.0002973852
135.48,0.0002972603
136.62,0.0002969487
137.76,0.0002966602
138.91,0.0002964237
140.05,0.0002960528
141.19,0.0002956356
142.34,0.0002952942
143.49,0.0002948035
144.63,0.0002945973
145.77,0.000294286
146.92,0.0002938709
148.06,0.0002934961
149.22,0.0002931701
150.36,0.0002929262
151.51,0.0002925495
152.66,0.0002922723
153.8,0.0002921834
154.94,0.0002921655
156.09,0.000292185
157.23,0.0002922159
158.38,0.0002924864
159.52,0.0002927728
160.67,0.0002930958
161.81,0.0002933225
162.95,0.0002936375
164.1,0.0002937338
165.26,0.0002939696
166.4,0.0002940044
167.55,0.0002941858
168.7,0.000294166
169.83,0.0002931447
170.98,0.0002937217
172.13,0.0002939861
173.28,0.0002943126
174.47,0.0002943271
175.61,0.0002943493
176.75,0.0002943162
177.89,0.0002944595
179.03,0.0002947743
180.18,0.0002945589
181.32,0.0002941274
182.46,0.0002937264
183.6,0.0002937677
184.74,0.0002934981
185.88,0.0002933589
187.03,0.0002932971
188.17,0.0002932014
189.32,0.0002931522
190.45,0.0002930207
191.59,0.0002929719
192.74,0.0002930183
193.88,0.0002930718
195.02,0.0002931782
196.16,0.000293371
197.31,0.0002936221
198.45,0.0002939353
199.58,0.0002941719
200.73,0.0002944228
201.88,0.0002943755
203.02,0.0002945761
204.16,0.0002946929
205.3,0.0002944609
206.43,0.0002943762
207.58,0.0002943416
208.73,0.0002942971
209.86,0.000294063
211.01,0.0002939511
212.17,0.0002936231
213.31,0.0002935227
214.5,0.0002934855
215.66,0.0002931283
216.8,0.0002930652
217.96,0.0002927654
219.1,0.0002925909
220.24,0.0002922487
221.38,0.0002919549
222.54,0.000291643
223.68,0.0002914925
224.82,0.0002911927
225.97,0.0002909507
227.11,0.0002907751
228.25,0.0002906909
229.4,0.0002905896
230.55,0.0002905015
231.69,0.0002906523
232.84,0.0002907546
233.97,0.0002909268
235.12,0.0002912948
236.26,0.0002916441
237.4,0.0002921676
238.6,0.0002926565
239.81,0.0002933044
240.96,0.0002938224
242.11,0.0002942901
243.26,0.0002947389
244.4,0.000294915
245.55,0.0002951041
246.7,0.000295311
247.85,0.0002953571
249.0,0.0002953378
250.15,0.0002953975
251.3,0.0002953687
252.45,0.0002953345
253.59,0.0002951943
254.75,0.0002950831
255.9,0.0002951228
257.05,0.0002949997
258.19,0.0002949801
259.35,0.0002950148
260.48,0.0002950018
261.64,0.0002950193
262.79,0.0002948756
263.94,0.0002947586
265.08,0.0002945126
266.22,0.0002943056
267.38,0.0002939972
268.53,0.0002936645
269.68,0.0002933631
270.84,0.0002930971
271.97,0.0002926578
273.12,0.0002922623
274.28,0.0002919434
275.42,0.0002916502
276.56,0.0002914395
277.7,0.0002911309
278.84,0.0002911
279.99,0.0002911025
281.13,0.000290877
282.27,0.0002908102
283.41,0.0002906336
284.55,0.0002905628
285.69,0.0002903579
286.84,0.000290252
287.98,0.0002901699
289.13,0.0002901957
290.28,0.0002901699
291.43,0.0002902313
292.58,0.0002903904
293.72,0.0002904977
294.88,0.0002906931
296.03,0.0002908487
297.17,0.000290797
298.33,0.0002908138
299.53,0.0002908188
300.66,0.0002907394
301.81,0.0002905926
302.95,0.0002904853
304.1,0.0002904405
305.25,0.0002903575
306.4,0.0002903615
307.55,0.0002903853
308.69,0.0002903641
309.84,0.0002904356
310.97,0.0002903966
312.12,0.0002905012
313.28,0.0002906919
314.42,0.000290771
315.56,0.0002909653
316.7,0.0002911523
317.85,0.0002914047
318.99,0.0002917354
320.13,0.0002920622
321.27,0.0002923701
322.41,0.0002928074
323.56,0.0002932014
324.69,0.0002936856
325.83,0.0002939544
326.98,0.0002942963
328.12,0.0002946252
329.27,0.0002948073
330.42,0.0002949467
331.56,0.0002950027
332.71,0.0002951022
333.85,0.0002950811
334.98,0.0002950615
336.13,0.0002949649
337.33,0.0002948543
338.47,0.0002946696
339.62,0.0002943998
340.76,0.0002940844
341.91,0.0002938939
343.06,0.0002936579
344.2,0.0002933382
345.34,0.0002931439
346.49,0.0002928066
347.63,0.0002926096
348.79,0.0002923677
349.93,0.0002921325
351.07,0.0002918637
352.22,0.0002917309
353.36,0.0002916594
354.5,0.0002914801
355.64,0.0002914465
356.79,0.0002915089
357.92,0.0002916709
359.07,0.000291844
360.21,0.0002921955
361.35,0.0002924808
362.48,0.0002929185
363.62,0.0002933087
364.76,0.000293479
365.91,0.0002936566
367.06,0.0002938766
368.2,0.0002939746
369.35,0.0002940734
370.49,0.0002940522
371.62,0.0002940216
372.78,0.0002938931
373.92,0.0002939447
375.07,0.0002937189
376.22,0.0002936033
377.37,0.0002934533
378.53,0.0002933523
379.68,0.0002932445
380.83,0.0002930521
381.98,0.0002929529
383.13,0.0002927595
384.28,0.0002926315
385.42,0.0002923901
386.57,0.0002921493
387.71,0.0002920588
388.84,0.0002919153
389.99,0.0002918107
391.14,0.0002916714
392.29,0.0002916658
393.44,0.0002913717
394.58,0.0002912095
395.72,0.0002915967
396.86,0.0002918849
398.0,0.0002921545
399.14,0.0002924572
400.29,0.0002925986
401.43,0.0002927914
402.57,0.0002929828
403.72,0.0002929813
404.86,0.0002929347
406.0,0.0002928247
407.14,0.0002926481
408.28,0.000292343
409.42,0.0002921828
410.57,0.0002920334
411.71,0.0002918184
412.85,0.0002915806
413.99,0.0002914348
415.14,0.0002913079
416.29,0.0002912616
417.42,0.0002910642
418.56,0.0002909579
419.7,0.0002909721
420.85,0.0002909629
421.99,0.000290933
423.13,0.0002908019
424.28,0.0002907983
425.43,0.0002908684
426.57,0.0002909849
427.7,0.0002911732
428.85,0.0002913866
430.05,0.0002917172
431.21,0.0002920399
432.36,0.0002924441
433.5,0.0002929468
434.64,0.0002933527
435.79,0.0002939268
436.93,0.0002941565
438.07,0.000294692
439.2,0.000294808
440.35,0.000294985
441.5,0.0002950404
442.63,0.000294926
443.78,0.0002948306
444.92,0.0002947139
446.06,0.0002944144
447.21,0.0002940527
448.35,0.0002937788
449.49,0.0002933418
450.63,0.0002928893
451.78,0.0002925223
452.91,0.0002921456
454.06,0.0002918507
455.2,0.0002914976
456.35,0.0002911552
457.5,0.0002909522
458.64,0.0002907776
459.78,0.0002906556
460.94,0.0002906269
462.09,0.000290659
463.24,0.000290849
464.39,0.000291039
465.54,0.0002911926
466.68,0.0002914707
467.82,0.0002918496
468.97,0.000292196
470.11,0.0002925267
471.25,0.0002927811
472.39,0.0002931238
473.53,0.0002933802
474.68,0.0002935495
475.82,0.0002936354
476.96,0.0002939518
478.1,0.0002940323
479.24,0.0002939209
480.43,0.0002939837
481.58,0.0002939281
482.73,0.0002938095
483.88,0.0002935523
485.02,0.0002933202
486.16,0.0002930184
487.3,0.0002928341
488.44,0.0002925097
489.58,0.0002923487
490.73,0.0002921045
491.87,0.0002919601
493.01,0.000291869
494.15,0.0002918187
495.29,0.0002919285
496.43,0.0002919715
497.57,0.0002921424
498.72,0.0002925093
499.86,0.0002929464
501.01,0.0002934018
502.15,0.0002939433
503.29,0.0002945228
504.45,0.0002949936
505.58,0.0002953816
506.73,0.0002957206
507.89,0.0002959765
509.04,0.0002961426
510.19,0.0002960957
511.34,0.0002959644
512.49,0.0002958122
513.63,0.0002954926
514.78,0.0002951126
515.93,0.0002946918
517.08,0.0002942357
518.23,0.0002936904
519.38,0.0002931238
520.52,0.0002927017
521.67,0.0002922228
522.82,0.0002916438
523.97,0.0002912187
525.12,0.0002908841
526.27,0.0002905729
527.43,0.0002903924
528.57,0.0002902519
529.71,0.0002903275
530.87,0.000290461
532.0,0.0002896046
533.16,0.0002910629
534.3,0.0002913736
535.44,0.0002919738
536.58,0.0002926208
537.72,0.0002928036
538.87,0.0002936912
540.0,0.00029445
541.14,0.0002950968
542.29,0.0002955841
543.43,0.0002959755
544.57,0.0002958842
545.72,0.0002964975
546.86,0.0002963917
548.0,0.000296373
549.14,0.00029634
550.3,0.0002960939
551.44,0.0002957883
552.58,0.0002956573
553.74,0.0002951784
554.88,0.0002947621
556.03,0.0002943364
557.17,0.0002939221
558.32,0.0002934699
559.45,0.0002929425
560.59,0.0002924527
561.74,0.0002920172
562.88,0.0002916201
564.02,0.0002912409
565.17,0.0002908756
566.32,0.0002906676
567.46,0.0002904623
568.6,0.000290352
569.74,0.0002903186
570.88,0.0002905805
572.03,0.0002908999
573.18,0.0002911971
574.33,0.0002917535
575.53,0.0002924689
576.67,0.0002929842
577.82,0.0002935207
578.96,0.0002940651
580.12,0.0002945235
581.26,0.0002949046
582.41,0.0002951978
583.56,0.0002953575
584.7,0.0002954965
585.86,0.0002954591
587.0,0.0002953005
588.15,0.0002951417
589.29,0.0002949751
590.43,0.0002948211
591.57,0.0002946613
592.71,0.0002945175
593.85,0.0002942185
595.0,0.0002940202
596.13,0.0002937948
597.28,0.000293627
598.42,0.0002934332
599.56,0.0002932364
600.7,0.0002931174
601.85,0.0002930181
602.99,0.000292965
604.13,0.0002928967
605.27,0.0002930581
606.41,0.0002930956
607.55,0.0002931898
608.69,0.0002932846
609.84,0.0002935617
610.98,0.0002937503
612.12,0.0002939724
613.26,0.0002941954
614.4,0.0002944802
615.55,0.0002945795
616.69,0.0002947185
617.83,0.0002948292
618.97,0.0002948356
620.11,0.0002946871
621.26,0.000294573
622.4,0.0002945434
623.53,0.0002944813
624.69,0.0002943547
625.84,0.0002942233
626.99,0.0002940813
628.13,0.0002939062
629.27,0.0002937153
630.41,0.0002933752
631.55,0.000293229
632.69,0.0002930271
633.84,0.0002927683
634.97,0.0002925599
636.13,0.0002924129
637.28,0.0002921823
638.42,0.0002919972
639.57,0.000291984
640.72,0.0002921409
641.87,0.0002923884
643.02,0.0002926564
644.16,0.0002929089
645.3,0.0002932626
646.44,0.0002935769
647.64,0.0002939207
648.79,0.0002943163
649.94,0.0002945134
651.09,0.0002947381
652.24,0.000295042
653.38,0.0002952547
654.53,0.0002953156
655.68,0.0002954889
656.84,0.0002955858
657.99,0.0002955657
659.14,0.000295425
660.29,0.0002952989
661.43,0.0002950332
662.57,0.0002947881
663.71,0.0002945157
664.84,0.0002942455
666.0,0.0002939926
667.14,0.0002937249
668.29,0.0002933985
669.43,0.0002931656
670.57,0.000292887
671.76,0.0002925617
672.89,0.0002923653
674.04,0.0002921725
675.18,0.0002920095
676.33,0.0002918893
677.48,0.0002919203
678.63,0.0002919566
679.78,0.000292051
680.93,0.0002922184
682.07,0.0002925343
683.21,0.000292844
684.35,0.0002930496
685.49,0.0002933089
686.63,0.0002935267
687.78,0.0002937339
688.92,0.0002937502
690.08,0.0002940508
691.24,0.0002943034
692.38,0.0002943211
693.54,0.0002944163
694.68,0.0002945837
695.82,0.0002946435
696.96,0.000294513
698.11,0.0002944338
699.26,0.0002944809
700.4,0.0002942797
701.54,0.0002941598
702.69,0.0002939262
703.83,0.000293754
704.97,0.0002935078
706.13,0.0002933058
707.27,0.0002931723
708.43,0.0002929814
709.57,0.0002928596
710.71,0.0002926211
711.85,0.0002927818
713.0,0.000292826
714.16,0.0002928089
715.3,0.0002930112
716.44,0.0002930483
717.58,0.0002932892
718.72,0.0002935194
719.86,0.0002936425
721.01,0.0002938024
722.14,0.0002938906
723.29,0.0002939977
724.43,0.0002940202
725.57,0.0002940319
726.71,0.0002940793
727.86,0.0002940836
729.0,0.0002940602
730.14,0.0002938385
731.28,0.0002936162
732.43,0.0002934167
733.56,0.0002931541
734.71,0.0002928966
735.87,0.0002927144
737.0,0.0002923934
738.15,0.0002921334
739.3,0.0002920807
740.43,0.0002919001
741.58,0.0002919458
742.72,0.0002917882
743.86,0.0002917225
745.0,0.0002917996
746.14,0.0002917389
747.29,0.0002919283
748.43,0.0002922321
749.57,0.0002923096
750.71,0.0002925477
751.85,0.0002928158
753.0,0.0002931553
754.14,0.0002933384
755.29,0.0002935929
756.42,0.0002937382
757.56,0.0002936789
758.7,0.0002936906
759.85,0.0002936202
760.99,0.0002936916
762.14,0.0002936297
763.29,0.0002936063
764.43,0.0002936088
765.57,0.0002936578
766.71,0.0002935744
767.86,0.000293483
769.01,0.0002933553
770.16,0.0002931524
771.31,0.0002928309
772.49,0.0002924912
773.63,0.0002921716
774.78,0.0002919572
775.93,0.0002915642
777.08,0.0002913473
778.23,0.0002911233
779.38,0.0002910588
780.52,0.0002909976
781.67,0.000290898
782.82,0.0002911176
783.97,0.0002912422
785.13,0.0002914227
786.27,0.0002918696
787.41,0.0002922713
788.61,0.0002926247
789.76,0.0002931675
790.91,0.000293605
792.07,0.0002941425
793.21,0.0002944868
794.36,0.000294956
795.52,0.0002950271
796.65,0.0002951756
797.8,0.0002952513
798.96,0.0002951059
800.1,0.0002948975
801.26,0.0002946808
802.4,0.0002943327
803.56,0.0002940397
804.7,0.000293749
805.85,0.0002934164
807.0,0.0002930179
808.16,0.0002926884
809.3,0.0002925165
810.44,0.0002921587
811.58,0.0002918164
812.72,0.0002916788
813.87,0.0002914822
815.01,0.0002911885
816.17,0.000291095
817.32,0.000291201
818.45,0.0002913304
819.59,0.0002915738
820.74,0.0002916896
821.88,0.0002920936
823.02,0.0002922061
824.17,0.0002925533
825.32,0.000292935
826.46,0.0002932612
827.6,0.0002934996
828.75,0.0002939316
829.89,0.0002941675
831.03,0.0002943599
832.18,0.0002946571
833.33,0.0002948111
834.47,0.0002946662
835.61,0.000294555
836.78,0.0002943302
837.93,0.0002938539
839.08,0.0002935884
840.23,0.0002930925
841.38,0.0002925998
842.53,0.0002923507
843.67,0.0002918175
844.83,0.0002911733
845.97,0.0002907838
847.13,0.0002904659
848.26,0.0002903499
849.4,0.0002901386
850.55,0.0002899408
851.69,0.0002897148
852.84,0.0002896735
853.99,0.0002898179
855.19,0.0002895276
856.32,0.0002896581
857.47,0.0002898413
858.61,0.0002898973
859.76,0.0002902328
860.89,0.0002906193
862.04,0.0002911971
863.18,0.000291747
864.32,0.0002924617
865.47,0.0002932037
866.62,0.000293902
867.76,0.0002946587
868.9,0.0002952955
870.04,0.0002958585
871.18,0.0002963588
872.33,0.000296857
873.53,0.0002971856
874.68,0.000297338
875.82,0.0002974416
876.95,0.0002975098
878.11,0.0002972123
879.24,0.0002970016
880.4,0.0002966335
881.55,0.00029615
882.69,0.0002957282
883.83,0.0002952123
884.97,0.0002947288
886.12,0.0002942827
887.26,0.0002935483
888.4,0.0002932148
889.53,0.0002926608
890.68,0.0002921785
891.82,0.0002915955
892.97,0.0002911855
894.11,0.000290687
895.25,0.0002903483
896.4,0.0002902841
897.55,0.0002900156
898.69,0.0002899917
899.83,0.0002900561
900.97,0.0002904954
902.12,0.0002906902
903.26,0.0002911719
904.41,0.000291686
905.56,0.0002921667
906.7,0.0002924744
907.85,0.0002928603
908.99,0.0002932955
910.13,0.0002934408
911.27,0.0002935118
912.41,0.0002937226
913.61,0.00029366
914.76,0.000293615
915.91,0.0002936268
917.06,0.0002935624
918.21,0.0002933487
919.36,0.0002931175
920.55,0.0002929837
921.7,0.0002928413
922.85,0.0002926175
924.0,0.0002926908
925.15,0.0002927206
926.3,0.0002925889
927.45,0.0002925964
928.58,0.0002928126
929.72,0.0002928653
930.88,0.000293
932.03,0.0002930515
933.17,0.0002932705
934.33,0.0002932584
935.47,0.0002933157
936.62,0.0002937318
937.8,0.0002939463
938.95,0.0002944609
940.08,0.0002947781
941.23,0.0002954271
942.37,0.0002957349
943.51,0.0002959604
944.66,0.0002960656
945.79,0.0002961975
946.94,0.0002961169
948.09,0.0002957846
949.22,0.0002955665
950.36,0.0002954042
951.5,0.0002952498
952.65,0.0002948978
953.79,0.0002946567
954.93,0.0002943989
956.08,0.0002940929
957.23,0.0002936609
958.36,0.0002931666
959.51,0.0002928363
960.66,0.0002926312
961.8,0.0002919593
962.94,0.0002915797
964.09,0.0002913231
965.24,0.000291082
966.38,0.0002908434
967.52,0.0002906889
968.7,0.000289849
969.84,0.0002902589
970.97,0.0002904183
972.11,0.0002908493
973.3,0.0002914082
974.44,0.0002921324
975.64,0.0002936366
976.78,0.0002940472
977.93,0.0002947155
979.07,0.0002952435
980.23,0.0002954453
981.38,0.0002956192
982.53,0.0002956355
983.69,0.0002956972
984.85,0.0002956642
985.99,0.0002956379
987.15,0.0002953888
988.3,0.0002950984
989.44,0.0002947985
990.6,0.0002944491
991.74,0.0002941005
992.9,0.0002936009
994.06,0.0002933244
995.22,0.000293088
996.38,0.0002925827
997.54,0.000292441
998.69,0.000292328
999.85,0.0002920531
1001.01,0.000291909
1002.17,0.0002919567
1003.33,0.0002918507
1004.48,0.0002916334
1005.64,0.0002915866
1006.78,0.0002916398
1007.92,0.0002918708
1009.07,0.0002921857
1010.22,0.0002921745
1011.37,0.000292841
1012.57,0.0002931513
1013.73,0.0002931968
1014.89,0.0002933354
1016.05,0.0002934984
1017.21,0.0002935708
1018.37,0.0002937299
1019.52,0.0002937521
1020.68,0.0002938133
1021.84,0.0002936367
1023.0,0.0002934777
1024.15,0.0002933706
1025.31,0.0002930261
1026.47,0.0002925371
1027.62,0.0002921491
1028.77,0.0002917316
1029.93,0.0002913001
1031.08,0.0002907078
1032.24,0.0002902649
1033.4,0.0002900424
1034.55,0.0002898936
1035.69,0.0002896253
1036.83,0.0002896284
1037.98,0.000289874
1039.12,0.0002901234
1040.28,0.0002902474
1041.44,0.0002906999
1042.6,0.000291206
1043.75,0.0002918329
1044.9,0.0002922606
1046.07,0.0002929773
1047.22,0.0002933448
1048.37,0.0002938247
1049.53,0.0002941873
1050.69,0.0002944723
1051.84,0.000294604
1052.99,0.0002945161
1054.14,0.0002945116
1055.31,0.0002943556
1056.46,0.0002940922
1057.62,0.0002937333
1058.76,0.000293432
1059.91,0.0002930576
1061.07,0.0002925933
1062.21,0.0002921633
1063.35,0.0002918391
1064.5,0.0002914061
1065.66,0.0002909996
1066.81,0.0002906281
1067.97,0.0002904759
1069.12,0.0002901553
1070.27,0.0002898936
1071.43,0.0002897197
1072.59,0.0002896435
1073.74,0.0002895809
1074.89,0.000289689
1076.05,0.0002899123
1077.2,0.0002903499
1078.37,0.0002906736
1079.52,0.0002910873
1080.68,0.0002915758
1081.82,0.0002918233
1082.98,0.0002922022
1084.14,0.0002924938
1085.3,0.0002928619
1086.43,0.0002930249
1087.59,0.0002933974
1088.74,0.0002933719
1089.88,0.0002934193
1091.04,0.000293505
1092.2,0.0002934911
1093.35,0.0002934446
1094.51,0.0002933253
1095.67,0.0002933096
1096.81,0.0002931833
1097.94,0.0002927559
1099.09,0.0002925756
1100.24,0.0002920461
1101.38,0.0002915742
1102.55,0.0002909371
1103.69,0.0002904753
1104.85,0.0002899827
1106.01,0.0002895695
1107.16,0.0002892989
1108.3,0.0002890037
1109.45,0.0002889628
1110.6,0.0002891267
1111.75,0.000289169
1112.91,0.0002893617
1114.07,0.0002897159
1115.22,0.0002899978
1116.38,0.0002904464
1117.54,0.0002909289
1118.7,0.0002912837
1119.85,0.0002915861
1121.0,0.0002918496
1122.16,0.0002923005
1123.3,0.0002923779
1124.45,0.0002924827
1125.61,0.0002926967
1126.77,0.000292863
1127.93,0.0002929944
1129.08,0.0002930007
1130.25,0.0002930395
1131.4,0.000292994
1132.56,0.0002929859
1133.71,0.0002928303
1134.87,0.0002926718
1136.03,0.0002926106
1137.17,0.0002923197
1138.32,0.0002920633
1139.46,0.0002917834
1140.61,0.0002915656
1141.77,0.0002911412
1142.93,0.0002909018
1144.09,0.0002907332
1145.23,0.0002906372
1146.39,0.0002906943
1147.54,0.0002906171
1148.69,0.0002908535
1149.85,0.0002909502
1150.99,0.0002909666
1152.15,0.0002909131
1153.29,0.0002910146
1154.44,0.000290943
1155.61,0.0002910102
1156.76,0.0002908893
1157.92,0.0002909233
1159.08,0.0002908711
1160.24,0.0002907149
1161.38,0.0002905506
1162.53,0.0002905368
1163.69,0.000290635
1164.85,0.000290597
1166.01,0.0002905239
1167.15,0.0002906283
1168.31,0.0002907933
1169.45,0.0002907838
1170.61,0.0002909097
1171.76,0.0002909264
1172.92,0.0002909966
1174.08,0.0002910746
1175.24,0.0002912163
1176.4,0.0002913518
1177.55,0.0002916783
1178.71,0.0002920227
1179.87,0.0002922673
1181.03,0.0002924732
1182.19,0.0002927709
1183.35,0.0002928856
1184.5,0.000292859
1185.64,0.0002930049
1186.81,0.0002929553
1187.96,0.0002928365
1189.12,0.0002926067
1190.28,0.0002925849
1191.43,0.000292254
1192.57,0.0002919732
1193.74,0.0002917997
1194.88,0.0002915718
1196.04,0.0002911705
1197.19,0.0002909032
1198.34,0.0002907113
1199.49,0.0002905131
1200.65,0.0002902969
1201.8,0.0002901719
1202.95,0.0002900885
1204.09,0.0002903431
1205.25,0.0002902039
1206.4,0.0002903601
1207.56,0.000290747
1208.7,0.0002910713
1209.86,0.0002913821
1211.0,0.0002919558
1212.16,0.0002923682
1213.32,0.0002927573
1214.46,0.0002930354
1215.62,0.0002933514
1216.78,0.0002936831
1217.93,0.000293771
1219.07,0.0002937933
1220.22,0.0002939002
1221.38,0.0002937368
1222.52,0.0002937348
1223.67,0.0002934946
1224.83,0.0002934
1225.98,0.0002932777
1227.14,0.0002930791
1228.3,0.0002933504
1229.45,0.0002931934
1230.61,0.0002928967
1231.75,0.0002926526
1232.91,0.0002924378
1234.04,0.0002920757
1235.18,0.0002919598
1236.32,0.0002917152
1237.5,0.0002914581
1238.65,0.0002912539
1239.8,0.0002912184
1240.96,0.0002911845
1242.13,0.0002910923
1243.27,0.0002911398
1244.43,0.0002911713
1245.59,0.0002913358
1246.75,0.0002916031
1247.89,0.0002919831
1249.04,0.0002922573
1250.19,0.0002926191
1251.35,0.0002928865
1252.55,0.0002931692
1253.69,0.0002932238
1254.84,0.0002934789
1255.99,0.0002936606
1257.14,0.0002937456
1258.3,0.000293817
1259.44,0.0002937248
1260.58,0.0002937243
1261.72,0.0002937665
1262.92,0.0002934579
1264.05,0.0002933453
1265.19,0.0002933002
1266.35,0.00029292
1267.49,0.0002925947
1268.64,0.0002924418
1269.78,0.000292313
1270.97,0.0002920836
1272.1,0.0002918551
1273.26,0.0002918832
1274.41,0.0002918662
1275.57,0.0002917698
1276.71,0.0002917405
1277.86,0.0002917885
1279.0,0.0002916097
1280.16,0.0002915579
1281.3,0.0002915858
1282.44,0.0002916144
1283.62,0.0002917432
1284.78,0.0002919742
1285.92,0.0002920019
1287.05,0.0002922499
1288.23,0.0002924696
1289.38,0.0002925422
1290.53,0.0002928171
1291.67,0.0002928256
1292.81,0.0002929439
1293.95,0.0002928992
1295.11,0.000292982
1296.24,0.0002928464
1297.39,0.0002927036
1298.59,0.0002923796
1299.75,0.0002922307
1300.9,0.0002920402
1302.05,0.0002918399
1303.2,0.000291736
1304.34,0.0002917462
1305.5,0.0002925868
1306.66,0.0002927472
1307.82,0.000292557
1308.95,0.0002927542
1310.11,0.000292813
1311.26,0.0002931355
1312.39,0.0002931878
1313.54,0.0002933993
1314.7,0.0002934664
1315.86,0.0002934946
1316.99,0.0002935776
1318.14,0.0002937391
1319.27,0.0002936752
1320.42,0.0002935995
1321.56,0.0002937688
1322.69,0.0002934563
1323.88,0.0002930825
1325.03,0.0002929904
1326.18,0.0002930773
1327.32,0.0002925393
1328.48,0.0002925931
1329.63,0.000292534
1330.77,0.0002926359
1331.91,0.0002925442
1333.05,0.000292759
1334.19,0.0002928393
1335.33,0.0002927012
1336.53,0.0002928714
1337.68,0.0002930786
1338.87,0.0002927674
1340.01,0.0002927699
1341.15,0.0002926326
1342.29,0.000292793
1343.43,0.0002934053
1344.57,0.0002928556
1345.77,0.0002932694
1346.96,0.0002934862
1348.13,0.000293578
1349.27,0.000293544
1350.42,0.0002937624
1351.55,0.0002938761
1352.7,0.0002939018
1353.83,0.0002939272
1354.97,0.0002940179
1356.11,0.0002940169
1357.25,0.0002939264
1358.39,0.000293933
1359.52,0.0002938807
1360.71,0.0002937111
1361.9,0.0002935088
1363.04,0.0002934524
1364.19,0.0002933877
1365.32,0.0002932826
1366.47,0.0002930434
1367.65,0.0002930515
1368.8,0.0002928746
1370.0,0.0002927176
1371.14,0.0002927622
1372.28,0.0002925482
1373.43,0.0002925174
1374.58,0.0002924805
1375.78,0.0002926396
1376.92,0.0002926685
1378.06,0.0002929527
1379.2,0.0002931167
1380.34,0.0002933095
1381.49,0.0002935588
1382.67,0.0002937104
1383.81,0.000293718
1384.96,0.0002938551
1386.1,0.0002937952
1387.24,0.0002937361
1388.39,0.0002938267
1389.52,0.0002938411
1390.67,0.0002938223
1391.8,0.0002936885
1392.95,0.0002936954
1394.09,0.0002935136
1395.23,0.0002933576
1396.38,0.0002932792
1397.56,0.0002932284
1398.7,0.0002932782
1399.84,0.0002933354
1400.99,0.0002933912
1402.17,0.000293508
1403.36,0.0002935581
1404.5,0.0002934541
1405.69,0.0002934071
1406.83,0.0002933858
1407.97,0.0002933536
1409.15,0.0002932823
1410.29,0.0002933074
1411.43,0.0002932495
1412.57,0.0002929787
1413.72,0.0002929925
1414.85,0.0002928588
1415.98,0.0002925304
1417.13,0.0002916462
1418.33,0.0002914191
1419.47,0.0002916268
1420.61,0.0002917416
1421.75,0.0002914757
1422.89,0.0002913776
1424.04,0.0002910369
1425.24,0.0002908601
1426.39,0.0002907155
1427.52,0.0002904429
1428.69,0.00029048
1429.82,0.0002904491
1430.97,0.0002905791
1432.1,0.0002907787
1433.25,0.0002909427
1434.39,0.000290925
1435.53,0.0002911305
1436.68,0.0002913563
1437.86,0.0002862264
1439.04,0.0002890459
1440.18,0.0002937992
1441.32,0.0002927091
1442.46,0.0002929261
1443.66,0.0002930549
1444.79,0.0002931821
1445.94,0.0002934206
1447.14,0.0002934188
1448.27,0.0002934337
1449.42,0.0002933125
1450.56,0.0002931623
1451.7,0.0002928226
1452.85,0.0002924462
1453.98,0.0002920582
1455.13,0.0002916663
1456.31,0.0002912013
1457.46,0.0002909029
1458.6,0.0002903399
1459.74,0.0002899408
1460.93,0.0002898706
1462.11,0.0002893228
1463.24,0.0002890202
1464.43,0.0002889373
1465.57,0.0002891028
1466.71,0.000289134
1467.85,0.0002891622
1469.0,0.0002892447
1470.15,0.000289476
1471.3,0.0002867913
1472.44,0.0002893583
1473.58,0.0002904503
1474.71,0.0002911508
1475.85,0.0002915941
1477.0,0.0002918637
1478.13,0.0002921539
1479.29,0.0002924501
1480.43,0.000292647
1481.58,0.0002933882
1482.72,0.0002930995
1483.86,0.000292999
1485.01,0.0002929458
1486.2,0.0002927601
1487.39,0.0002923284
1488.52,0.0002919181
1489.67,0.0002917023
1490.81,0.0002915776
1491.95,0.0002914154
1493.1,0.0002911424
1494.24,0.000290852
1495.38,0.000290654
1496.58,0.000290312
1497.78,0.0002900837
1498.92,0.0002902137
1500.06,0.0002902103
1501.21,0.0002902969
1502.39,0.0002903656
1503.54,0.0002903501
1504.72,0.000290298
1505.91,0.0002904553
1507.09,0.0002904941
1508.22,0.000290628
1509.37,0.0002907757
1510.52,0.0002908063
1511.72,0.0002908522
1512.87,0.0002908616
1514.05,0.0002908377
1515.2,0.0002908384
1516.34,0.0002908797
1517.49,0.0002908845
1518.63,0.0002909914
1519.78,0.0002910762
1520.92,0.0002911637
1522.06,0.0002910949
1523.2,0.0002910927
1524.34,0.0002909651
1525.49,0.0002908597
1526.67,0.0002908876
1527.82,0.0002908618
1528.96,0.0002910018
1530.1,0.0002911661
1531.29,0.0002913277
1532.47,0.0002913171
1533.61,0.0002914809
1534.76,0.0002915294
1535.92,0.0002918237
1537.1,0.0002921285
1538.25,0.000292316
1539.4,0.0002924807
1540.54,0.0002925171
1541.68,0.0002924685
1542.87,0.0002924007
1544.01,0.0002922231
1545.16,0.0002918926
1546.3,0.000291642
1547.5,0.0002913504
1548.69,0.0002910914
1549.82,0.0002909334
1550.97,0.0002906923
1552.1,0.00029048
1553.25,0.0002902225
1554.4,0.000290067
1555.54,0.0002899431
1556.68,0.0002897829
1557.86,0.0002897954
1559.01,0.000289884
1560.14,0.0002899236
1561.34,0.0002900929
1562.48,0.0002903637
1563.62,0.0002906164
1564.77,0.0002908319
1565.96,0.0002911891
1567.1,0.0002912724
1568.23,0.0002914375
1569.37,0.0002917328
1570.52,0.0002918387
1571.7,0.0002918534
1572.85,0.0002918783
1573.99,0.0002920139
1575.13,0.0002918393
1576.27,0.0002917296
1577.42,0.0002917239
1578.59,0.000291505
1579.73,0.000291383
1580.88,0.0002912781
1582.02,0.0002911531
1583.16,0.0002910061
1584.31,0.0002911619
1585.45,0.000291135
1586.61,0.0002909
1587.74,0.0002908796
1588.89,0.0002907514
1590.03,0.0002905846
1591.22,0.0002902008
1592.36,0.0002901602
1593.52,0.000289782
1594.68,0.0002897045
1595.87,0.0002896736
1597.01,0.0002897782
1598.15,0.0002897966
1599.29,0.0002900319
1600.43,0.000290416
1601.59,0.000290644
1602.75,0.0002909949
1603.94,0.0002914594
1605.14,0.0002918792
1606.34,0.0002922551
1607.49,0.0002927686
1608.67,0.0002930391
1609.85,0.0002933686
1611.02,0.0002935832
1612.2,0.0002935676
1613.34,0.0002936729
1614.48,0.0002933471
1615.62,0.0002933789
1616.79,0.0002926553
1617.93,0.0002921837
1619.07,0.0002917137
1620.26,0.0002911749
1621.41,0.000290706
1622.59,0.0002903307
1623.73,0.0002898304
1624.87,0.0002896132
1626.06,0.00028949
1627.24,0.0002896075
1628.44,0.0002896464
1629.58,0.0002899932
1630.72,0.0002902725
1631.86,0.000290724
1633.0,0.0002911683
1634.2,0.0002917981
1635.34,0.0002922338
1636.47,0.0002926422
1637.63,0.0002931328
1638.81,0.0002934222
1640.01,0.0002931113
1641.15,0.0002937613
1642.29,0.0002938512
1643.43,0.0002937171
1644.58,0.0002936661
1645.72,0.0002936179
1646.87,0.0002930952
1648.02,0.0002922828
1649.21,0.0002922836
1650.38,0.0002918668
1651.52,0.0002917401
1652.65,0.0002915736
1653.79,0.0002914407
1654.94,0.000291119
1656.08,0.0002910655
1657.26,0.0002911663
1658.41,0.0002910265
1659.56,0.000290836
1660.7,0.0002906776
1661.85,0.0002906572
1663.0,0.0002906057
1664.14,0.0002906549
1665.28,0.0002908551
1666.42,0.0002909325
1667.57,0.0002910128
1668.71,0.0002913024
1669.84,0.0002913495
1671.0,0.000291489
1672.14,0.0002915198
1673.28,0.0002915854
1674.43,0.000291773
1675.58,0.0002915607
1676.74,0.0002917004
1677.88,0.0002915782
1679.03,0.0002916463
1680.17,0.0002915718
1681.32,0.000291516
1682.47,0.0002915495
1683.63,0.0002916384
1684.77,0.0002919595
1685.91,0.0002918832
1687.06,0.000292059
1688.2,0.0002921281
1689.33,0.0002921636
1690.52,0.0002920901
1691.68,0.0002921197
1692.83,0.0002919676
1693.98,0.0002919359
1695.13,0.0002917567
1696.27,0.0002916072
1697.43,0.000291432
1698.57,0.0002911925
1699.71,0.0002910259
1700.86,0.0002907531
1702.06,0.0002905208
1703.21,0.0002902426
1704.37,0.0002899759
1705.52,0.0002897264
1706.67,0.0002894506
1707.87,0.0002894244
1709.0,0.0002889567
1710.16,0.0002890834
1711.34,0.0002890881
1712.48,0.0002889972
1713.62,0.0002891674
1714.77,0.0002894012
1715.93,0.0002895865
1717.08,0.0002900846
1718.22,0.0002904593
1719.37,0.0002911033
1720.52,0.0002915121
1721.66,0.000291958
1722.86,0.0002923972
1723.99,0.0002926213
1725.14,0.0002928488
1726.28,0.0002928436
1727.42,0.0002930001
1728.57,0.0002930187
1729.7,0.0002931215
1730.85,0.0002930772
1732.0,0.0002926974
1733.15,0.0002924216
1734.29,0.0002921152
1735.43,0.0002915543
1736.58,0.0002910858
1737.71,0.0002907282
1738.86,0.0002902549
1740.01,0.0002901274
1741.15,0.0002895464
1742.31,0.0002892849
1743.46,0.0002890439
1744.61,0.0002889128
1745.76,0.0002888213
1746.92,0.0002887021
1748.07,0.0002887373
1749.22,0.0002890609
1750.37,0.0002892697
1751.53,0.0002898523
1752.68,0.0002903315
1753.83,0.0002908661
1754.99,0.0002914327
1756.15,0.0002918353
1757.31,0.000292183
1758.47,0.0002923061
1759.63,0.0002924322
1760.79,0.0002925477
1761.95,0.0002924671
1763.09,0.0002923399
1764.25,0.0002919532
1765.41,0.0002917298
1766.57,0.0002914058
1767.72,0.0002907398
1768.86,0.0002903877
1770.01,0.0002902602
1771.14,0.0002896922
1772.29,0.0002892346
1773.45,0.0002890207
1774.6,0.0002887596
1775.75,0.0002884328
1776.91,0.0002884071
1778.04,0.0002880023
1779.2,0.0002880616
1780.35,0.0002883366
1781.5,0.0002888592
1782.66,0.0002891177
1783.82,0.000289635
1784.96,0.0002901153
1786.12,0.0002905668
1787.25,0.000290968
1788.4,0.0002909831
1789.56,0.000291613
1790.72,0.0002915933
1791.87,0.0002916796
1793.02,0.0002910877
1794.17,0.0002911456
1795.33,0.0002907101
1796.47,0.0002902867
1797.6,0.0002899453
1798.75,0.0002896048
1799.89,0.0002892445
